Wavelength Intensity
700.006 6901.28
699.962 6675.79
699.918 6797.24
699.874 6718.29
699.83 6661.61
699.786 6719.03
699.742 6726.35
699.698 6764.27
699.654 6554.67
699.61 6625.97
699.566 6638.86
699.522 6690.66
699.478 6697.98
699.434 6660.84
699.389 6659.83
699.345 6622.7
699.301 6735.58
699.257 6529.04
699.213 6719.64
699.169 6699.19
699.125 6820.31
699.081 6683.27
699.037 6635.08
698.993 6667.37
698.949 6730.16
698.905 6687.53
698.861 6708.7
698.817 6588.44
698.773 6559.72
698.729 6722.27
698.685 6543.86
698.641 6686.97
698.597 6497.54
698.553 6502.09
698.509 6523.26
698.465 6574.89
698.421 6584.96
698.377 6489.83
698.333 6452.85
698.289 6565.35
698.245 6500.7
698.201 6339.22
698.157 6523.62
698.113 6359.42
698.068 6363.99
698.024 6540.0
697.98 6483.71
697.936 6410.84
697.892 6396.04
697.848 6314.93
697.804 6244.88
697.76 6390.36
697.716 6436.35
697.672 6421.56
697.628 6564.18
697.584 6234.61
697.54 6421.38
697.496 6329.32
697.452 6482.9
697.408 6429.49
697.364 6478.17
697.319 6419.25
697.275 6456.89
697.231 6400.75
697.187 6339.11
697.143 6338.15
697.099 6444.68
697.055 6325.19
697.011 6340.76
696.967 6259.89
696.923 6261.69
696.879 6340.62
696.835 6152.38
696.791 6148.69
696.746 6277.15
696.702 6182.6
696.658 6162.39
696.614 6188.97
696.57 6303.59
696.526 6299.87
696.482 6370.43
696.438 6275.95
696.394 6261.24
696.35 6271.29
696.306 6165.87
696.261 6186.92
696.217 6320.63
696.173 6204.26
696.129 6175.85
696.085 6207.87
696.041 6143.75
695.997 6260.89
695.953 6092.46
695.909 6151.92
695.864 6269.0
695.82 6342.14
695.776 6439.96
695.732 6120.73
695.688 6278.89
695.644 6332.79
695.6 6205.68
695.556 6366.5
695.512 6335.37
695.467 6200.1
695.423 6223.81
695.379 6346.17
695.335 6435.61
695.291 6336.02
695.247 6414.48
695.203 6369.68
695.159 6448.11
695.114 6406.06
695.07 6372.24
695.026 6387.68
694.982 6444.17
694.938 6248.93
694.894 6371.08
694.85 6164.97
694.806 6322.64
694.761 6174.03
694.717 6184.02
694.673 6163.94
694.629 6135.67
694.585 6099.2
694.541 6005.38
694.497 6132.85
694.452 6066.36
694.408 5928.89
694.364 6089.08
694.32 5962.57
694.276 5988.95
694.232 6116.31
694.188 6019.87
694.143 5967.11
694.099 5848.89
694.055 6003.47
694.011 5961.64
693.967 5974.37
693.923 5959.82
693.878 5909.84
693.834 5873.51
693.79 5995.24
693.746 5882.61
693.702 6001.58
693.658 6164.09
693.613 5871.74
693.569 5919.86
693.525 5910.78
693.481 5918.04
693.437 5955.24
693.393 6008.76
693.348 5874.51
693.304 5936.19
693.26 5886.32
693.216 5947.97
693.172 5835.57
693.128 5793.89
693.083 5866.4
693.039 5816.58
692.995 5799.38
692.951 5765.895
692.907 5732.41
692.862 5720.66
692.818 5771.39
692.774 5705.33
692.73 5530.69
692.686 5738.88
692.642 5800.43
692.597 5712.7
692.553 5744.38
692.509 5648.55
692.465 5625.98
692.421 5687.5
692.376 5697.48
692.332 5598.99
692.288 5768.93
692.244 5643.36
692.2 5658.75
692.155 5584.72
692.111 5551.36
692.067 5658.86
692.023 5563.2
691.979 5689.62
691.934 5615.65
691.89 5601.25
691.846 5576.03
691.802 5672.6
691.758 5666.32
691.713 5589.7
691.669 5629.42
691.625 5585.28
691.581 5403.23
691.536 5461.89
691.492 5607.04
691.448 5646.73
691.404 5464.78
691.36 5590.95
691.315 5552.27
691.271 5648.67
691.227 5483.04
691.183 5538.91
691.138 5500.26
691.094 5539.91
691.05 5638.94
691.006 5508.53
690.961 5480.7
690.917 5423.19
690.873 5433.15
690.829 5534.82
690.785 5423.39
690.74 5419.87
690.696 5529.57
690.652 5321.16
690.608 5403.9
690.563 5470.44
690.519 5515.4
690.475 5479.53
690.431 5325.16
690.386 5459.0
690.342 5512.01
690.298 5274.24
690.254 5402.65
690.209 5353.37
690.165 5427.9
690.121 5394.78
690.077 5385.88
690.032 5430.78
689.988 5467.6
689.944 5353.82
689.9 5412.14
689.855 5438.19
689.811 5375.54
689.767 5390.84
689.722 5430.31
689.678 5426.79
689.634 5364.18
689.59 5478.84
689.545 5225.58
689.501 5431.51
689.457 5339.41
689.413 5309.06
689.368 5302.88
689.324 5146.44
689.28 5320.03
689.236 5225.33
689.191 5310.35
689.147 5242.49
689.103 5407.92
689.058 5227.48
689.014 5336.57
688.97 5362.55
688.926 5251.86
688.881 5159.96
688.837 5231.49
688.793 5311.04
688.748 5310.22
688.704 5215.69
688.66 5313.94
688.616 5171.26
688.571 5199.91
688.527 5252.62
688.483 5211.68
688.438 5240.31
688.394 5079.03
688.35 5252.07
688.305 5328.8
688.261 5124.8
688.217 5217.57
688.173 5211.42
688.128 5256.04
688.084 5135.01
688.04 5254.42
687.995 5200.2
687.951 5207.41
687.907 5070.43
687.862 5168.43
687.818 5090.23
687.774 5158.83
687.729 5238.09
687.685 5191.93
687.641 5148.45
687.596 4958.29
687.552 5077.53
687.508 5076.74
687.464 5265.25
687.419 5136.49
687.375 4959.8
687.331 5108.26
687.286 5139.44
687.242 5146.64
687.198 5132.53
687.153 5113.1
687.109 5106.99
687.065 5178.08
687.02 5126.71
686.976 4979.54
686.932 5252.86
686.887 4954.06
686.843 5123.55
686.799 5056.27
686.754 5103.36
686.71 5155.75
686.666 5053.93
686.621 5055.81
686.577 5025.79
686.532 5035.65
686.488 5090.67
686.444 4991.59
686.399 5030.66
686.355 5122.84
686.311 4925.55
686.266 4993.82
686.222 4974.47
686.178 4841.0
686.133 4978.24
686.089 5123.4
686.045 5138.53
686.0 4938.81
685.956 5004.34
685.912 4937.28
685.867 5018.71
685.823 5044.44
685.778 5011.86
685.734 5122.38
685.69 4957.32
685.645 4887.68
685.601 5101.47
685.557 5124.52
685.512 4909.25
685.468 4953.5
685.424 4952.73
685.379 4880.51
685.335 4940.62
685.29 4902.81
685.246 4957.61
685.202 4911.88
685.157 4953.44
685.113 5050.51
685.068 4988.92
685.024 4903.56
684.98 4836.73
684.935 4917.9
684.891 4896.0
684.847 4859.585
684.802 4823.17
684.758 4883.17
684.713 4929.95
684.669 4958.23
684.625 4870.35
684.58 4964.61
684.536 4808.15
684.491 4944.61
684.447 4988.69
684.403 4887.69
684.358 4873.75
684.314 4767.52
684.269 4866.97
684.225 4882.03
684.181 4910.27
684.136 4935.86
684.092 4890.31
684.047 4936.97
684.003 4975.72
683.959 4906.48
683.914 4889.92
683.87 4970.78
683.825 4838.39
683.781 4966.61
683.737 4902.68
683.692 4941.39
683.648 4953.78
683.603 4992.47
683.559 4960.14
683.514 4988.3
683.47 5042.74
683.426 4931.55
683.381 4909.76
683.337 4953.68
683.292 5052.76
683.248 4946.89
683.203 5111.61
683.159 5047.79
683.115 5089.02
683.07 5001.59
683.026 4906.31
682.981 4931.8
682.937 4973.02
682.892 4980.13
682.848 4966.24
682.804 4965.47
682.759 4904.38
682.715 4945.58
682.67 5062.79
682.626 5022.69
682.581 5061.23
682.537 5000.17
682.492 5070.14
682.448 5231.78
682.404 4916.64
682.359 5054.69
682.315 4870.6
682.27 4982.43
682.226 4994.75
682.181 5072.5
682.137 4995.82
682.092 5063.08
682.048 4962.88
682.004 5205.37
681.959 5081.65
681.915 5046.86
681.87 5004.25
681.826 5021.77
681.781 5005.31
681.737 5216.22
681.692 5066.47
681.648 5047.4
681.603 4999.6
681.559 5022.33
681.514 5005.88
681.47 5153.93
681.425 5059.15
681.381 5277.61
681.337 5081.07
681.292 5221.18
681.248 5160.37
681.203 5070.88
681.159 5294.39
681.114 5233.59
681.07 5167.6
681.025 5218.93
680.981 5098.22
680.936 5042.71
680.892 5242.56
680.847 5101.06
680.803 5204.46
680.758 5188.03
680.714 5257.53
680.669 5243.7
680.625 5151.77
680.58 5057.27
680.536 5074.7
680.491 5164.99
680.447 5315.08
680.402 5147.78
680.358 5196.39
680.313 5281.4
680.269 5241.58
680.224 5279.76
680.18 5346.52
680.135 5226.14
680.091 5240.92
680.046 5260.89
680.002 5265.27
679.957 5272.24
679.913 5188.33
679.868 5114.83
679.824 5417.76
679.779 5172.93
679.735 5301.89
679.69 5345.18
679.646 5308.02
679.601 5273.48
679.557 5371.21
679.512 5183.67
679.468 5312.5
679.423 5358.34
679.379 5271.97
679.334 5087.16
679.29 5332.52
679.245 5308.38
679.201 5201.35
679.156 5172.05
679.111 5373.23
679.067 5108.3
679.022 5218.82
678.978 5254.25
678.933 5248.26
678.889 5376.82
678.844 5143.14
678.8 5261.33
678.755 5252.75
678.711 5282.97
678.666 5067.55
678.622 5167.58
678.577 5107.33
678.532 5101.36
678.488 5097.99
678.443 5128.2
678.399 5137.73
678.354 5196.33
678.31 5146.46
678.265 5150.82
678.221 5157.77
678.176 5076.95
678.132 4993.58
678.087 5168.26
678.042 5133.92
677.998 5125.38
677.953 5140.06
677.909 5118.63
677.864 4880.63
677.82 5127.34
677.775 4879.11
677.731 4955.66
677.686 5045.07
677.641 5057.17
677.597 4963.65
677.552 4924.25
677.508 5029.06
677.463 4933.01
677.419 4981.15
677.374 5067.89
677.329 5041.36
677.285 4868.19
677.24 4972.91
677.196 4912.97
677.151 4961.07
677.107 4991.15
677.062 4805.26
677.017 4693.98
676.973 4832.04
676.928 4833.85
676.884 4768.86
676.839 4842.62
676.795 4939.48
676.75 4787.18
676.705 4727.37
676.661 4890.95
676.616 4823.45
676.572 4732.86
676.527 4821.94
676.482 4777.57
676.438 4889.71
676.393 4668.35
676.349 4762.51
676.304 4679.72
676.259 4663.6
676.215 4688.51
676.17 4664.71
676.126 4581.98
676.081 4742.69
676.036 4744.51
675.992 4661.8
675.947 4689.25
675.903 4657.79
675.858 4631.46
675.813 4612.82
675.769 4724.71
675.724 4649.76
675.68 4641.36
675.635 4699.48
675.59 4703.86
675.546 4582.92
675.501 4669.15
675.456 4627.51
675.412 4435.07
675.367 4523.83
675.323 4679.01
675.278 4501.98
675.233 4567.7
675.189 4521.01
675.144 4635.23
675.1 4665.14
675.055 4442.3
675.01 4377.79
674.966 4517.48
674.921 4562.71
674.876 4607.92
674.832 4551.08
674.787 4478.95
674.742 4526.7
674.698 4475.0
674.653 4594.12
674.609 4445.56
674.564 4409.19
674.519 4360.08
674.475 4428.19
674.43 4384.19
674.385 4434.45
674.341 4372.63
674.296 4392.32
674.251 4381.45
674.207 4383.31
674.162 4433.53
674.117 4389.57
674.073 4411.79
674.028 4324.61
673.984 4285.78
673.939 4346.14
673.894 4271.72
673.85 4324.44
673.805 4453.4
673.76 4396.79
673.716 4335.12
673.671 4268.38
673.626 4308.36
673.582 4340.71
673.537 4345.11
673.492 4336.81
673.448 4287.89
673.403 4238.99
673.358 4230.715
673.314 4222.44
673.269 4125.37
673.224 4203.36
673.18 4192.56
673.135 4331.38
673.09 4312.95
673.046 4213.41
673.001 4184.87
672.956 4313.46
672.912 4145.55
672.867 4208.24
672.822 4009.99
672.778 4222.12
672.733 4251.84
672.688 4154.96
672.643 4098.62
672.599 4267.56
672.554 4165.66
672.509 4043.55
672.465 4217.49
672.42 4108.06
672.375 4173.17
672.331 4233.21
672.286 4171.86
672.241 4120.65
672.197 4211.0
672.152 4139.58
672.107 3972.16
672.063 4100.38
672.018 4082.06
671.973 4066.26
671.928 4047.95
671.884 4125.59
671.839 4135.04
671.794 4078.86
671.75 4100.93
671.705 4049.83
671.66 3963.41
671.615 4114.14
671.571 4017.66
671.526 4072.5
671.481 4079.43
671.437 4131.73
671.392 4136.12
671.347 4067.43
671.302 4011.36
671.258 4010.73
671.213 4143.6
671.168 4037.17
671.124 4021.43
671.079 3935.2
671.034 3932.06
670.989 4102.6
670.945 4003.81
670.9 4151.63
670.855 4005.07
670.811 4105.05
670.766 4016.38
670.721 4076.1
670.676 4015.12
670.632 3961.7
670.587 4061.62
670.542 3980.56
670.497 4007.58
670.453 4006.95
670.408 4028.93
670.363 4116.19
670.318 4022.64
670.274 3939.16
670.229 3976.19
670.184 4000.66
670.14 4025.13
670.095 3863.92
670.05 4048.95
670.005 4043.3
669.961 4037.65
669.916 4072.12
669.871 4006.3
669.826 3945.51
669.782 3997.52
669.737 3906.68
669.692 3911.07
669.647 3950.54
669.603 3992.5
669.558 3879.18
669.513 4043.83
669.468 3895.48
669.423 3909.89
669.379 3886.75
669.334 3991.24
669.289 4015.63
669.244 3884.92
669.2 3894.31
669.155 3916.21
669.11 3965.6
669.065 3992.47
669.021 4074.33
668.976 4011.21
668.931 3960.61
668.886 4019.94
668.842 4051.79
668.797 3936.26
668.752 4070.49
668.707 4134.77
668.662 4126.63
668.618 3983.7
668.573 4055.45
668.528 3979.95
668.483 3899.49
668.439 3938.79
668.394 3900.76
668.349 3989.92
668.304 3956.88
668.259 3991.15
668.215 3905.78
668.17 3979.93
668.125 4054.05
668.08 3861.58
668.035 3960.61
667.991 3885.27
667.946 3799.99
667.901 3816.82
667.856 3890.9
667.811 3979.9
667.767 3929.5
667.722 3948.78
667.677 3948.16
667.632 3905.25
667.587 4046.4
667.543 3889.1
667.498 3980.48
667.453 3833.19
667.408 4016.51
667.363 3891.62
667.319 3928.28
667.274 3935.11
667.229 3909.65
667.184 3849.43
667.139 3786.75
667.095 3945.05
667.05 3934.5
667.005 3921.47
666.96 3958.07
666.915 3910.3
666.87 3902.25
666.826 3968.6
666.781 3749.74
666.736 3925.2
666.691 3976.64
666.646 3866.94
666.602 3834.12
666.557 3957.41
666.512 3877.5
666.467 3886.8
666.422 3915.91
666.377 3828.62
666.333 3959.24
666.288 3839.79
666.243 3883.74
666.198 3850.95
666.153 3823.12
666.108 3921.48
666.064 3906.02
666.019 3888.09
665.974 3877.59
665.929 3847.3
665.884 3913.44
665.839 3944.96
665.794 3867.72
665.75 3874.53
665.705 3854.15
665.66 3910.36
665.615 3860.34
665.57 3926.41
665.525 3891.22
665.481 3917.76
665.436 3771.51
665.391 3830.15
665.346 3814.74
665.301 3791.93
665.256 3855.47
665.211 3810.46
665.167 3910.97
665.122 3861.04
665.077 3700.19
665.032 3914.04
664.987 4036.64
664.942 3853.67
664.897 3781.62
664.853 3830.28
664.808 3817.36
664.763 3858.62
664.718 3877.71
664.673 3724.47
664.628 3822.33
664.583 3875.87
664.538 3821.12
664.494 3795.92
664.449 3881.41
664.404 3947.2
664.359 3794.12
664.314 4012.33
664.269 3829.79
664.224 3831.64
664.179 3924.42
664.135 3867.29
664.09 3903.52
664.045 3856.24
664.0 3907.2
663.955 3808.36
663.91 3851.95
663.865 3853.8
663.82 3838.46
663.775 3886.93
663.731 3775.91
663.686 3819.47
663.641 3912.07
663.596 3862.4
663.551 3930.44
663.506 3851.37
663.461 3794.38
663.416 3739.87
663.371 3668.21
663.326 3780.33
663.282 3897.32
663.237 3906.49
663.192 3849.55
663.147 3826.91
663.102 3750.41
663.057 3735.13
663.012 3803.06
662.967 3800.01
662.922 3855.68
662.877 3815.93
662.832 3881.36
662.788 3753.59
662.743 3789.67
662.698 3718.18
662.653 3751.81
662.608 3690.12
662.563 3811.7
662.518 3830.64
662.473 3766.53
662.428 3707.32
662.383 3848.36
662.338 3750.09
662.293 3739.73
662.248 3685.44
662.204 3767.83
662.159 3713.55
662.114 3827.62
662.069 3678.23
662.024 3821.53
661.979 3752.65
661.934 3791.06
661.889 3710.02
661.844 3724.05
661.799 3667.42
661.754 3786.22
661.709 3736.9
661.664 3875.14
661.619 3735.71
661.574 3834.95
661.53 3827.04
661.485 3843.47
661.44 3782.02
661.395 3696.25
661.35 3792.98
661.305 3802.11
661.26 3794.21
661.215 3754.7
661.17 3814.89
661.125 3658.7
661.08 3662.98
661.035 3808.21
660.99 3788.17
660.945 3838.58
660.9 3789.39
660.855 3749.93
660.81 3676.49
660.765 3676.49
660.72 3676.49
660.675 3728.13
660.63 3783.36
660.586 3807.02
660.541 3663.28
660.496 3677.25
660.451 3664.54
660.406 3780.35
660.361 3787.02
660.316 3648.25
660.271 3671.91
660.226 3632.55
660.181 3627.13
660.136 3767.06
660.091 3657.46
660.046 3785.23
660.001 3733.78
659.956 3728.35
659.911 3672.08
659.866 3746.52
659.821 3745.93
659.776 3696.94
659.731 3856.01
659.686 3562.74
659.641 3639.56
659.596 3684.92
659.551 3672.25
659.506 3695.83
659.461 3738.75
659.416 3713.99
659.371 3976.74
659.326 3842.0649999999996
659.281 3707.39
659.236 3639.18
659.191 3727.94
659.146 3715.27
659.101 3651.93
659.056 3605.49
659.011 3771.41
658.966 3575.39
658.921 3847.4
658.876 3620.08
658.831 3665.32
658.786 3652.68
658.741 3767.81
658.696 3644.29
658.651 3718.41
658.606 3640.72
658.561 3628.09
658.516 3560.07
658.471 3629.34
658.426 3674.52
658.381 3664.3
658.336 3750.38
658.291 3809.95
658.246 3636.08
658.201 3584.97
658.156 3661.38
658.111 3660.8
658.066 3604.9
658.021 3616.35
657.976 3586.93
657.931 3653.66
657.886 3691.53
657.841 3563.59
657.796 3591.85
657.751 3788.26
657.706 3689.18
657.661 3724.61
657.616 3579.95
657.571 3663.41
657.526 3686.82
657.481 3640.64
657.435 3659.25
657.39 3577.1
657.345 3646.09
657.3 3688.68
657.255 3649.73
657.21 3685.11
657.165 3545.48
657.12 3624.01
657.075 3513.2
657.03 3644.42
656.985 3655.82
656.94 3691.16
656.895 3647.47
656.85 3680.41
656.805 3653.48
656.76 3724.71
656.715 3511.11
656.67 3678.06
656.625 3694.22
656.58 3631.43
656.535 3535.18
656.49 3668.54
656.444 3622.52
656.399 3574.13
656.354 3595.07
656.309 3527.58
656.264 3574.8
656.219 3574.23
656.174 3652.49
656.129 3608.92
656.084 3488.94
656.039 3648.36
655.994 3635.84
655.949 3604.23
655.904 3496.26
655.859 3579.21
655.814 3588.18
655.768 3675.87
655.723 3482.1
655.678 3591.23
655.633 3690.8
655.588 3523.34
655.543 3689.62
655.498 3588.94
655.453 3652.7
655.408 3549.67
655.363 3530.05
655.318 3512.81
655.273 3547.97
655.228 3566.45
655.182 3661.1
655.137 3498.67
655.092 3538.56
655.047 3557.03
655.002 3563.6
654.957 3608.22
654.912 3474.47
654.867 3526.22
654.822 3535.17
654.777 3548.86
654.732 3536.41
654.686 3509.71
654.641 3561.42
654.596 3506.21
654.551 3593.53
654.506 3471.84
654.461 3568.63
654.416 3589.43
654.371 3572.24
654.326 3559.8
654.281 3423.98
654.235 3551.54
654.19 3579.44
654.145 3588.35
654.1 3564.07
654.055 3565.87
654.01 3562.92
653.965 3595.54
653.92 3526.24
653.875 3532.78
653.829 3589.07
653.784 3619.29
653.739 3500.3
653.694 3402.65
653.649 3586.77
653.604 3678.52
653.559 3545.39
653.514 3554.29
653.468 3593.94
653.423 3598.09
653.378 3474.52
653.333 3592.21
653.288 3478.14
653.243 3449.21
653.198 3415.57
653.153 3467.01
653.107 3612.96
653.062 3421.01
653.017 3512.59
652.972 3504.94
652.927 3568.14
652.882 3499.1
652.837 3430.07
652.791 3443.69
652.746 3443.13
652.701 3555.84
652.656 3616.61
652.611 3476.86
652.566 3575.35
652.521 3466.31
652.475 3510.55
652.43 3458.13
652.385 3471.71
652.34 3468.8
652.295 3498.87
652.25 3507.74
652.205 3490.68
652.159 3518.38
652.114 3428.34
652.069 3500.78
652.024 3471.97
651.979 3414.93
651.934 3496.74
651.888 3531.47
651.843 3434.45
651.798 3605.6
651.753 3435.7
651.708 3557.41
651.663 3427.54
651.617 3469.3
651.572 3567.45
651.527 3531.63
651.482 3502.87
651.437 3521.1
651.392 3400.76
651.346 3454.22
651.301 3484.19
651.256 3460.15
651.211 3415.0
651.166 3459.04
651.121 3395.13
651.075 3558.8
651.03 3546.5
650.985 3499.03
650.94 3578.19
650.895 3535.42
650.85 3436.4
650.804 3555.37
650.759 3376.71
650.714 3507.37
650.669 3497.44
650.624 3454.71
650.578 3519.73
650.533 3472.34
650.488 3560.74
650.443 3438.45
650.398 3473.0
650.352 3329.71
650.307 3483.58
650.262 3384.78
650.217 3463.75
650.172 3470.21
650.126 3549.14
650.081 3415.32
650.036 3449.83
649.991 3453.95
649.946 3518.82
649.9 3441.16
649.855 3594.77
649.81 3433.05
649.765 3481.53
649.72 3492.64
649.674 3531.76
649.629 3458.84
649.584 3451.29
649.539 3553.39
649.494 3415.18
649.448 3489.27
649.403 3498.04
649.358 3565.09
649.313 3436.3
649.268 3524.32
649.222 3467.82
649.177 3457.94
649.132 3562.22
649.087 3482.45
649.041 3439.96
648.996 3430.09
648.951 3424.88
648.906 3340.53
648.861 3575.07
648.815 3507.01
648.77 3501.79
648.725 3477.96
648.68 3358.77
648.634 3544.28
648.589 3462.33
648.544 3429.22
648.499 3461.21
648.453 3486.22
648.408 3520.51
648.363 3471.15
648.318 3386.96
648.273 3458.42
648.227 3471.79
648.182 3503.74
648.137 3431.21
648.092 3516.54
648.046 3432.42
648.001 3499.16
647.956 3484.68
647.911 3521.23
647.865 3420.93
647.82 3552.56
647.775 3496.34
647.73 3493.46
647.684 3472.03
647.639 3346.33
647.594 3487.13
647.549 3361.47
647.503 3490.64
647.458 3476.18
647.413 3424.68
647.368 3382.45
647.322 3435.14
647.277 3517.91
647.232 3390.07
647.187 3461.24
647.141 3363.53
647.096 3427.74
647.051 3501.19
647.005 3482.13
646.96 3426.08
646.915 3455.58
646.87 3503.55
646.824 3493.74
646.779 3479.32
646.734 3561.91
646.689 3411.22
646.643 3394.5
646.598 3518.63
646.553 3460.35
646.508 3535.95
646.462 3486.92
646.417 3391.76
646.372 3455.8
646.326 3439.1
646.281 3477.75
646.236 3518.69
646.191 3405.15
646.145 3457.62
646.1 3443.23
646.055 3442.68
646.009 3555.01
645.964 3517.58
645.919 3397.25
645.874 3456.57
645.828 3561.92
645.783 3503.8
645.738 3484.81
645.692 3481.95
645.647 3416.96
645.602 3437.11
645.556 3546.97
645.511 3452.1
645.466 3453.84
645.421 3359.02
645.375 3413.64
645.33 3367.12
645.285 3469.99
645.239 3430.37
645.194 3367.78
645.149 3463.71
645.103 3483.82
645.058 3474.07
645.013 3395.45
644.968 3399.49
644.922 3488.44
644.877 3501.65
644.832 3462.08
644.786 3392.7
644.741 3428.85
644.696 3453.52
644.65 3432.32
644.605 3424.89
644.56 3442.67
644.514 3403.15
644.469 3427.81
644.424 3415.8
644.378 3552.68
644.333 3364.3
644.288 3404.98
644.242 3486.84
644.197 3431.34
644.152 3364.41
644.106 3462.26
644.061 3411.37
644.016 3442.84
643.97 3359.94
643.925 3320.52
643.88 3528.05
643.834 3458.9
643.789 3513.19
643.744 3489.77
643.698 3352.1
643.653 3438.38
643.608 3389.85
643.562 3409.85
