Wavelength Intensity
700.006 5514.9
699.962 5645.74
699.918 5566.95
699.874 5396.34
699.83 5543.0
699.786 5489.29
699.742 5736.04
699.698 5568.28
699.654 5467.32
699.61 5502.64
699.566 5524.04
699.522 5534.32
699.478 5472.34
699.434 5543.75
699.389 5506.79
699.345 5658.74
699.301 5571.78
699.257 5570.93
699.213 5503.44
699.169 5549.8
699.125 5476.79
699.081 5537.01
699.037 5616.65
698.993 5499.26
698.949 5354.17
698.905 5417.15
698.861 5646.51
698.817 5601.29
698.773 5644.79
698.729 5533.05
698.685 5327.11
698.641 5428.83
698.597 5391.99
698.553 5499.21
698.509 5478.98
698.465 5411.68
698.421 5319.48
698.377 5426.65
698.333 5389.83
698.289 5366.87
698.245 5349.45
698.201 5356.94
698.157 5228.86
698.113 5286.15
698.068 5274.28
698.024 5256.89
697.98 5427.51
697.936 5313.34
697.892 5251.72
697.848 5311.72
697.804 5313.68
697.76 5357.07
697.716 5372.83
697.672 5294.68
697.628 5280.06
697.584 5455.97
697.54 5181.83
697.496 5371.5
697.452 5376.2
697.408 5378.14
697.364 5269.72
697.319 5437.19
697.275 5240.53
697.231 5220.43
697.187 5203.09
697.143 5268.46
697.099 5116.05
697.055 5145.59
697.011 5210.94
696.967 5166.06
696.923 5055.08
696.879 5203.05
696.835 5125.15
696.791 5121.61
696.746 5324.56
696.702 5216.4
696.658 5088.99
696.614 5096.47
696.57 5092.95
696.526 5133.43
696.482 5248.18
696.438 5030.11
696.394 5056.84
696.35 5133.05
696.306 5085.54
696.261 5079.27
696.217 5188.41
696.173 5127.17
696.129 5101.67
696.085 5051.44
696.041 4902.37
695.997 5096.59
695.953 5049.13
695.909 5059.34
695.864 5154.64
695.82 5079.75
695.776 5161.3
695.732 5176.97
695.688 5170.69
695.644 5216.53
695.6 5207.51
695.556 5042.2
695.512 5236.07
695.467 5111.93
695.423 5198.84
695.379 5239.15
695.335 5202.74
695.291 5130.72
695.247 5258.66
695.203 5211.31
695.159 5199.56
695.114 5267.21
695.07 5244.5
695.026 5287.49
694.982 5322.26
694.938 5340.6
694.894 5181.12
694.85 5281.53
694.806 5034.6
694.761 5159.6
694.717 5035.79
694.673 4961.22
694.629 5118.98
694.585 4864.06
694.541 4825.07
694.497 4960.92
694.452 5066.68
694.408 4907.51
694.364 5046.02
694.32 4911.47
694.276 4902.53
694.232 4980.93
694.188 4734.57
694.143 4873.0
694.099 4937.73
694.055 4950.61
694.011 4941.67
693.967 4842.75
693.923 4782.03
693.878 4781.3
693.834 4865.06
693.79 4959.7
693.746 4841.78
693.702 4941.83
693.658 5036.41
693.613 4945.77
693.569 5010.37
693.525 5009.6
693.481 4840.06
693.437 4885.59
693.393 4882.12
693.348 4788.86
693.304 4736.44
693.26 4806.43
693.216 4699.63
693.172 4707.07
693.128 4630.22
693.083 4735.53
693.039 4631.52
692.995 4595.49
692.951 4559.46
692.907 4632.11
692.862 4707.46
692.818 4679.58
692.774 4776.62
692.73 4612.98
692.686 4650.28
692.642 4568.14
692.597 4673.28
692.553 4626.44
692.509 4612.17
692.465 4625.02
692.421 4523.96
692.376 4572.08
692.332 4536.13
692.288 4573.39
692.244 4480.53
692.2 4471.72
692.155 4679.68
692.111 4554.33
692.067 4518.42
692.023 4468.98
691.979 4468.29
691.934 4505.51
691.89 4499.41
691.846 4422.93
691.802 4503.44
691.758 4610.99
691.713 4396.54
691.669 4566.29
691.625 4535.84
691.581 4445.9
691.536 4629.09
691.492 4528.35
691.448 4473.59
691.404 4359.4
691.36 4558.69
691.315 4528.27
691.271 4514.07
691.227 4351.32
691.183 4320.95
691.138 4498.49
691.094 4473.51
691.05 4432.33
691.006 4374.97
690.961 4509.23
690.917 4360.14
690.873 4432.31
690.829 4445.12
690.785 4339.26
690.74 4392.52
690.696 4416.11
690.652 4404.65
690.608 4363.54
690.563 4228.13
690.519 4292.15
690.475 4358.84
690.431 4387.8
690.386 4311.72
690.342 4286.82
690.298 4342.7
690.254 4385.11
690.209 4244.48
690.165 4230.37
690.121 4315.82
690.077 4385.1
690.032 4284.91
689.988 4222.39
689.944 4377.71
689.9 4213.03
689.855 4244.64
689.811 4268.18
689.767 4321.27
689.722 4240.0
689.678 4161.44
689.634 4238.7
689.59 4025.87
689.545 4119.24
689.501 4260.91
689.457 4126.03
689.413 4133.45
689.368 4202.59
689.324 4175.11
689.28 4212.02
689.236 4179.19
689.191 4186.59
689.147 4226.17
689.103 4064.65
689.058 4203.43
689.014 4301.95
688.97 4113.7
688.926 4118.42
688.881 4216.92
688.837 4127.87
688.793 4178.12
688.748 4166.77
688.704 3989.42
688.66 4119.98
688.616 4052.43
688.571 4121.39
688.527 4211.73
688.483 4160.25
688.438 4025.86
688.394 4089.43
688.35 4091.48
688.305 4197.8
688.261 4052.79
688.217 4028.11
688.173 4153.1
688.128 3976.1
688.084 3975.49
688.04 3980.22
687.995 4155.89
687.951 4043.09
687.907 4050.47
687.862 4143.29
687.818 3918.43
687.774 3995.23
687.729 3981.27
687.685 4028.68
687.641 4030.73
687.596 4120.79
687.552 4056.15
687.508 4111.52
687.464 3934.94
687.419 3998.3
687.375 3880.42
687.331 4082.34
687.286 3996.46
687.242 3844.0
687.198 3963.26
687.153 4071.84
687.109 3940.74
687.065 3934.81
687.02 4091.25
686.976 3992.15
686.932 3882.43
686.887 3964.31
686.843 3987.64
686.799 3957.77
686.754 3877.38
686.71 4009.73
686.666 3892.14
686.621 4027.1
686.577 3957.38
686.532 3962.08
686.488 3966.79
686.444 3995.4
686.399 3949.63
686.355 4057.9
686.311 3921.86
686.266 4019.48
686.222 3878.18
686.178 3885.54
686.133 3906.17
686.089 3934.75
686.045 3838.6549999999997
686.0 3742.56
685.956 3964.76
685.912 3905.81
685.867 3913.16
685.823 3856.89
685.778 3824.49
685.734 3784.15
685.69 3863.05
685.645 3894.25
685.601 3835.37
685.557 3906.29
685.512 4006.31
685.468 3995.1
685.424 3864.77
685.379 3882.7
685.335 3868.87
685.29 3870.92
685.246 3865.03
685.202 3830.05
685.157 3858.55
685.113 3897.62
685.068 3838.85
685.024 3819.75
684.98 3774.23
684.935 3845.0
684.891 3891.97
684.847 3838.53
684.802 3806.24
684.758 3832.06
684.713 3847.31
684.669 3844.08
684.625 3669.26
684.58 3824.41
684.536 3807.99
684.491 3854.9
684.447 3928.17
684.403 3824.69
684.358 3813.55
684.314 3844.6
684.269 3830.83
684.225 3701.07
684.181 3832.28
684.136 3726.27
684.092 3889.06
684.047 3854.21
684.003 3727.18
683.959 3887.26
683.914 3849.79
683.87 3833.4
683.825 3756.46
683.781 3716.4
683.737 3797.41
683.692 3715.25
683.648 3827.8
683.603 3885.08
683.559 3821.36
683.514 3844.43
683.47 3728.16
683.426 3811.7
683.381 3771.69
683.337 3884.1
683.292 3891.39
683.248 3811.97
683.203 3819.26
683.159 3902.71
683.115 3836.46
683.07 3867.37
683.026 3853.65
682.981 3926.54
682.937 3912.81
682.892 3867.6
682.848 3927.34
682.804 3908.37
682.759 3794.99
682.715 3886.18
682.67 3877.72
682.626 3864.01
682.581 3913.21
682.537 3771.09
682.492 3932.96
682.448 3874.72
682.404 3842.68
682.359 4164.23
682.315 4160.96
682.27 3856.61
682.226 3874.33
682.181 3923.46
682.137 3951.64
682.092 3961.5
682.048 3921.64
682.004 3868.72
681.959 3807.96
681.915 3974.73
681.87 3895.68
681.826 4017.94
681.781 3933.68
681.737 3948.75
681.692 4023.91
681.648 3965.81
681.603 3876.39
681.559 4121.29
681.514 3995.3
681.47 4070.4
681.425 3983.62
681.381 4090.02
681.337 3966.73
681.292 3986.99
681.248 3955.06
681.203 4048.36
681.159 4024.25
681.114 4002.77
681.07 4004.76
681.025 4129.26
680.981 4024.37
680.936 3969.01
680.892 4028.33
680.847 4131.91
680.803 4053.13
680.758 4010.83
680.714 4038.85
680.669 3993.96
680.625 4074.04
680.58 4172.31
680.536 4038.94
680.491 4090.36
680.447 4003.87
680.402 4065.68
680.358 4104.06
680.313 4074.82
680.269 4113.18
680.224 4154.14
680.18 4135.3
680.135 4158.05
680.091 4139.21
680.046 4125.58
680.002 4114.55
679.957 4059.37
679.913 4089.9
679.868 4019.16
679.824 4109.4
679.779 4108.76
679.735 4040.65
679.69 4154.19
679.646 4109.44
679.601 4033.58
679.557 4108.16
679.512 4133.45
679.468 4171.7
679.423 4111.43
679.379 4103.02
679.334 4177.53
679.29 4143.2
679.245 4093.33
679.201 4152.27
679.156 4084.29
679.111 4135.44
679.067 4057.13
679.022 4079.8
678.978 4079.16
678.933 4109.58
678.889 4158.11
678.844 4116.07
678.8 3993.85
678.755 4117.37
678.711 4033.98
678.666 4069.55
678.622 4045.65
678.577 4024.35
678.532 3961.7
678.488 4033.43
678.443 3999.22
678.399 4029.59
678.354 4013.47
678.31 3961.2
678.265 3955.42
678.221 3921.24
678.176 3954.19
678.132 3945.83
678.087 4022.62
678.042 3936.86
677.998 3954.31
677.953 3878.9
677.909 3942.76
677.864 3898.32
677.82 3781.71
677.775 3840.4
677.731 3806.3
677.686 3916.5
677.641 3825.72
677.597 3783.91
677.552 3868.32
677.508 3648.83
677.463 3748.68
677.419 3737.8
677.374 3708.9
677.329 3770.09
677.285 3766.93
677.24 3750.9
677.196 3740.03
677.151 3688.01
677.107 3687.44
677.062 3620.01
677.017 3750.55
676.973 3711.41
676.928 3672.29
676.884 3612.62
676.839 3627.47
676.795 3675.71
676.75 3574.98
676.705 3611.65
676.661 3648.32
676.616 3563.04
676.572 3624.08
676.527 3523.43
676.482 3646.04
676.438 3617.25
676.393 3691.08
676.349 3493.02
676.304 3623.25
676.259 3522.7
676.215 3517.02
676.17 3526.73
676.126 3656.87
676.081 3628.12
676.036 3509.71
675.992 3480.99
675.947 3452.27
675.903 3505.5
675.858 3530.56
675.813 3542.81
675.769 3478.27
675.724 3521.23
675.68 3546.27
675.635 3520.13
675.59 3517.02
675.546 3536.93
675.501 3434.1
675.456 3492.37
675.412 3379.35
675.367 3368.6
675.323 3370.62
675.278 3441.64
675.233 3438.55
675.189 3381.82
675.144 3432.37
675.1 3347.57
675.055 3421.08
675.01 3410.34
674.966 3302.61
674.921 3289.33
674.876 3270.96
674.832 3469.43
674.787 3241.88
674.742 3322.98
674.698 3404.06
674.653 3324.49
674.609 3431.04
674.564 3234.25
674.519 3243.94
674.475 3230.69
674.43 3288.78
674.385 3270.44
674.341 3282.66
674.296 3170.11
674.251 3235.81
674.207 3166.57
674.162 3216.98
674.117 3249.56
674.073 3104.03
674.028 3207.84
673.984 3138.66
673.939 3153.43
673.894 3180.91
673.85 3038.04
673.805 3121.45
673.76 3026.93
673.716 3158.59
673.671 3145.39
673.626 3063.61
673.582 3101.23
673.537 3100.74
673.492 3020.285
673.448 2939.83
673.403 3104.37
673.358 3022.67
673.314 3166.83
673.269 3014.11
673.224 3008.56
673.18 3003.02
673.135 3048.2
673.09 3095.9
673.046 2895.13
673.001 3034.09
672.956 2988.0
672.912 2954.59
672.867 3025.07
672.822 2915.67
672.778 3029.18
672.733 3013.52
672.688 2932.02
672.643 2964.47
672.599 2931.1
672.554 2907.87
672.509 2889.7
672.465 2914.55
672.42 2924.21
672.375 2916.16
672.331 2908.12
672.286 2895.02
672.241 2942.6
672.197 2886.53
672.152 2954.31
672.107 2885.63
672.063 2864.96
672.018 2902.4
671.973 2874.17
671.928 2934.32
671.884 2747.02
671.839 2948.55
671.794 2915.27
671.75 2889.58
671.705 2851.28
671.66 2873.54
671.615 2807.5
671.571 2885.25
671.526 2932.71
671.481 2884.34
671.437 2838.51
671.392 2835.55
671.347 2888.02
671.302 2890.09
671.258 2904.75
671.213 2864.0
671.168 2863.55
671.124 2785.04
671.079 2761.94
671.034 2849.61
670.989 2801.34
670.945 2841.17
670.9 2787.88
670.855 2820.15
670.811 2842.35
670.766 2907.29
670.721 2854.03
670.676 2926.49
670.632 2860.67
670.587 2857.71
670.542 2874.85
670.497 2736.21
670.453 2808.63
670.408 2913.69
670.363 2863.0
670.318 2895.19
670.274 2759.17
670.229 2801.41
670.184 2783.4
670.14 2762.89
670.095 2790.05
670.05 2777.07
670.005 2819.27
669.961 2773.69
669.916 2670.45
669.871 2745.24
669.826 2764.86
669.782 2754.4
669.737 2806.59
669.692 2756.04
669.647 2735.57
669.603 2680.04
669.558 2812.34
669.513 2766.83
669.468 2738.86
669.423 2650.82
669.379 2808.07
669.334 2720.05
669.289 2694.6
669.244 2709.19
669.2 2701.26
669.155 2710.84
669.11 2732.91
669.065 2754.98
669.021 2712.06
668.976 2754.12
668.931 2721.2
668.886 2795.72
668.842 2705.35
668.797 2699.93
668.752 2861.83
668.707 2856.38
668.662 2890.89
668.618 2753.15
668.573 2802.63
668.528 2752.28
668.483 2726.9
668.439 2699.03
668.394 2745.99
668.349 2623.37
668.304 2690.28
668.259 2632.52
668.215 2761.71
668.17 2786.2
668.125 2676.12
668.08 2703.11
668.035 2737.56
667.991 2714.71
667.946 2661.99
667.901 2763.65
667.856 2713.43
667.811 2700.55
667.767 2729.99
667.722 2582.76
667.677 2686.84
667.632 2664.03
667.587 2683.51
667.543 2658.22
667.498 2712.5
667.453 2652.41
667.408 2721.58
667.363 2698.79
667.319 2611.415
667.274 2524.04
667.229 2642.87
667.184 2699.57
667.139 2731.43
667.095 2621.76
667.05 2641.2
667.005 2668.09
666.96 2724.74
666.915 2637.47
666.87 2704.04
666.826 2636.64
666.781 2670.94
666.736 2759.79
666.691 2630.43
666.646 2677.12
666.602 2639.52
666.557 2676.27
666.512 2616.39
666.467 2635.79
666.422 2551.16
666.377 2637.44
666.333 2649.4
666.288 2750.48
666.243 2549.55
666.198 2667.95
666.153 2588.34
666.108 2538.45
666.064 2637.0
666.019 2690.99
665.974 2688.1
665.929 2598.66
665.884 2674.89
665.839 2721.43
665.794 2594.96
665.75 2624.2
665.705 2685.55
665.66 2628.31
665.615 2600.73
665.57 2642.3
665.525 2570.28
665.481 2643.93
665.436 2539.85
665.391 2613.48
665.346 2659.95
665.301 2607.72
665.256 2659.11
665.211 2683.36
665.167 2562.1
665.122 2571.56
665.077 2546.5
665.032 2600.32
664.987 2553.09
664.942 2574.86
664.897 2544.89
664.853 2620.85
664.808 2664.77
664.763 2563.38
664.718 2602.37
664.673 2530.57
664.628 2601.55
664.583 2522.39
664.538 2605.65
664.494 2570.79
664.449 2622.04
664.404 2643.76
664.359 2621.21
664.314 2547.04
664.269 2642.51
664.224 2615.05
664.179 2553.21
664.135 2557.72
664.09 2559.77
664.045 2561.82
664.0 2703.85
663.955 2526.63
663.91 2592.52
663.865 2570.02
663.82 2537.7
663.775 2581.47
663.731 2527.09
663.686 2511.97
663.641 2548.36
663.596 2587.2
663.551 2518.13
663.506 2620.7
663.461 2627.64
663.416 2551.25
663.371 2590.05
663.326 2530.84
663.282 2493.69
663.237 2468.81
663.192 2448.83
663.147 2458.23
663.102 2452.95
663.057 2540.67
663.012 2625.93
662.967 2652.42
662.922 2512.55
662.877 2578.2
662.832 2462.84
662.788 2557.82
662.743 2542.75
662.698 2456.78
662.653 2497.95
662.608 2605.08
662.563 2475.16
662.518 2491.87
662.473 2479.26
662.428 2500.85
662.383 2529.76
662.338 2556.21
662.293 2467.93
662.248 2509.03
662.204 2520.83
662.159 2515.55
662.114 2441.97
662.069 2451.34
662.024 2531.43
661.979 2460.31
661.934 2542.81
661.889 2566.79
661.844 2515.2
661.799 2483.12
661.754 2485.16
661.709 2570.03
661.664 2603.72
661.619 2469.37
661.574 2386.19
661.53 2449.11
661.485 2497.4
661.44 2543.25
661.395 2494.18
661.35 2491.35
661.305 2471.49
661.26 2466.24
661.215 2473.14
661.17 2518.94
661.125 2506.39
661.08 2474.39
661.035 2415.67
660.99 2366.69
660.945 2444.06
660.9 2421.81
660.855 2433.57
660.81 2493.89
660.765 2420.66
660.72 2519.8
660.675 2453.87
660.63 2480.17
660.586 2387.58
660.541 2426.01
660.496 2481.42
660.451 2447.07
660.406 2386.06
660.361 2487.51
660.316 2382.88
660.271 2479.45
660.226 2474.2
660.181 2427.78
660.136 2437.08
660.091 2397.94
660.046 2329.75
660.001 2375.38
659.956 2445.21
659.911 2461.77
659.866 2461.38
659.821 2417.43
659.776 2388.01
659.731 2484.4
659.686 2454.98
659.641 2447.33
659.596 2347.81
659.551 2335.35
659.506 2436.49
659.461 2399.86
659.416 2397.06
659.371 2355.6
659.326 2461.52
659.281 2446.63
659.236 2359.31
659.191 2375.84
659.146 2365.8
659.101 2476.45
659.056 2480.89
659.011 2321.24
658.966 2424.61
658.921 2392.86
658.876 2351.48
658.831 2396.93
658.786 2466.46
658.741 2495.0
658.696 2333.11
658.651 2458.06
658.606 2452.85
658.561 2445.23
658.516 2358.1400000000003
658.471 2271.05
658.426 2403.12
658.381 2422.0
658.336 2395.14
658.291 2421.23
658.246 2351.06
658.201 2384.37
658.156 2335.88
658.111 2323.48
658.066 2344.75
658.021 2399.68
657.976 2425.74
657.931 2374.88
657.886 2362.48
657.841 2402.96
657.796 2340.11
657.751 2428.62
657.706 2394.6
657.661 2387.02
657.616 2425.05
657.571 2369.45
657.526 2412.28
657.481 2383.09
657.435 2327.53
657.39 2384.73
657.345 2295.6
657.3 2314.42
657.255 2376.4
657.21 2462.33
657.165 2315.71
657.12 2291.37
657.075 2391.66
657.03 2302.62
656.985 2340.59
656.94 2289.91
656.895 2397.32
656.85 2365.81
656.805 2336.7
656.76 2410.53
656.715 2374.25
656.67 2402.58
656.625 2397.41
656.58 2370.72
656.535 2298.58
656.49 2293.43
656.444 2362.41
656.399 2381.16
656.354 2239.75
656.309 2327.82
656.264 2262.93
656.219 2327.07
656.174 2343.42
656.129 2419.48
656.084 2321.18
656.039 2382.89
655.994 2365.8
655.949 2222.21
655.904 2257.65
655.859 2336.03
655.814 2309.42
655.768 2411.62
655.723 2301.52
655.678 2320.23
655.633 2358.01
655.588 2374.32
655.543 2319.12
655.498 2273.47
655.453 2373.18
655.408 2315.63
655.363 2389.5280000000002
655.318 2463.426
655.273 2537.324
655.228 2611.2219999999998
655.182 2685.12
655.137 2365.77
655.092 2324.93
655.047 2324.56
655.002 2359.87
654.957 2330.95
654.912 2349.61
654.867 2296.92
654.822 2303.68
654.777 2284.3
654.732 2224.52
654.686 2326.34
654.641 2549.3
654.596 2326.34
654.551 2326.34
654.506 2326.34
654.461 2191.52
654.416 2210.16
654.371 2356.97
654.326 2318.62
654.281 2346.72
654.235 2313.13
654.19 2255.83
654.145 2198.55
654.1 2304.91
654.055 2325.87
654.01 2292.31
653.965 2249.28
653.92 2329.5
653.875 2243.83
653.829 2297.95
653.784 2226.53
653.739 2256.96
653.694 2275.54
653.649 2289.38
653.604 2208.53
653.559 2250.78
653.514 2274.08
653.468 2242.96
653.423 2358.51
653.378 2223.32
653.333 2263.16
653.288 2234.43
653.243 2347.55
653.198 2195.89
653.153 2169.54
653.107 2237.72
653.062 2310.6
653.017 2227.55
652.972 2269.71
652.927 2307.13
652.882 2202.87
652.837 2268.62
652.791 2270.61
652.746 2164.05
652.701 2236.85
652.656 2238.85
652.611 2295.1
652.566 2235.78
652.521 2263.71
652.475 2268.07
652.43 2218.2
652.385 2144.78
652.34 2205.7
652.295 2309.02
652.25 2205.0
652.205 2270.59
652.159 2237.26
652.114 2189.81
652.069 2201.23
652.024 2163.21
651.979 2221.7
651.934 2120.16
651.888 2202.17
651.843 2166.53
651.798 2312.0
651.753 2219.92
651.708 2278.34
651.663 2280.33
651.617 2185.94
651.572 2223.19
651.527 2305.08
651.482 2180.19
651.437 2269.1
651.392 2247.6
651.346 2244.89
651.301 2251.57
651.256 2293.47
651.211 2302.49
651.166 2262.22
651.121 2200.85
651.075 2158.27
651.03 2286.93
650.985 2155.23
650.94 2290.89
650.895 2180.33
650.85 2161.23
650.804 2210.1
650.759 2275.35
650.714 2249.22
650.669 2171.55
650.624 2232.1
650.578 2201.29
650.533 2236.06
650.488 2181.86
650.443 2223.64
650.398 2157.75
650.352 2159.75
650.307 2203.85
650.262 2280.69
650.217 2235.88
650.172 2247.22
650.126 2267.9
650.081 2169.35
650.036 2154.98
649.991 2084.52
649.946 2182.32
649.9 2200.66
649.855 2181.62
649.81 2302.71
649.765 2218.28
649.72 2192.24
649.674 2201.22
649.629 2296.56
649.584 2223.85
649.539 2162.83
649.494 2120.49
649.448 2190.12
649.403 2234.08
649.358 2166.1
649.313 2184.4
649.268 2263.3
649.222 2183.7
649.177 2215.97
649.132 2178.34
649.087 2133.73
649.041 2198.59
648.996 2154.0
648.951 2179.26
648.906 2239.43
648.861 2199.51
648.815 2171.23
648.77 2249.99
648.725 2251.95
648.68 2219.02
648.634 2193.08
648.589 2143.9
648.544 2227.25
648.499 2085.09
648.453 2156.81
648.408 2191.31
648.363 2258.34
648.318 2158.67
648.273 2158.67
648.227 2158.67
648.182 2158.67
648.137 2158.67
648.092 2158.67
648.046 2216.34
648.001 2199.74
647.956 2243.46
647.911 2161.91
647.865 2140.69
647.82 2235.42
647.775 2197.96
647.73 2165.15
647.684 2206.52
647.639 2169.09
647.594 2115.45
647.549 2124.37
647.503 2239.84
647.458 2091.27
647.413 2081.67
647.368 2173.94
647.322 2245.34
647.277 2133.89
647.232 2179.82
647.187 2140.14
647.141 2246.21
647.096 2222.71
647.051 2183.04
647.005 2080.95
646.96 2203.14
646.915 2177.36
646.87 2209.36
646.824 2153.55
646.779 2139.34
646.734 2217.53
646.689 2201.01
646.643 2175.25
646.598 2094.09
646.553 2119.15
646.508 2153.42
646.462 2192.31
646.417 2168.88
646.372 2092.4
646.326 2172.79
646.281 2179.36
646.236 2204.37
646.191 2208.62
646.145 2265.89
646.1 2201.0
646.055 2219.07
646.009 2098.91
645.964 2183.8
645.919 2174.24
645.874 2160.07
645.828 2148.21
645.783 2140.95
645.738 2294.82
645.692 2181.68
645.647 2093.89
645.602 2118.86
645.556 2162.22
645.511 2138.87
645.466 2159.22
645.421 2158.87
645.375 2158.52
645.33 2105.31
645.285 2201.49
645.239 2249.38
645.194 2111.18
645.149 2188.93
645.103 2151.84
645.058 2169.86
645.013 2183.28
644.968 2150.79
644.922 2157.33
644.877 2138.62
644.832 2158.92
644.786 2238.86
644.741 2222.44
644.696 2231.26
644.65 2175.87
644.605 2157.17
644.56 2170.58
644.514 2128.98
644.469 2160.71
644.424 2190.14
644.378 2153.14
644.333 2116.14
644.288 2145.57
644.242 2117.75
644.197 2156.32
644.152 2142.24
644.106 2221.98
644.061 2166.71
644.016 2127.47
643.97 2088.24
643.925 2172.52
643.88 2147.01
643.834 2103.23
643.789 2137.17
643.744 2203.1
643.698 2166.19
643.653 2142.99
